FFT,Power Spectrum
Frequency[Hz],Level-L[dB],Level-R[dB]
11.719,-23.842,-21.938
23.438,-3.6191,-0.54325
35.156,-1.9301,6.304
46.875,5.6476,10.929
58.594,5.6904,13.237
70.313,2.8259,13.378
82.031,7.429,15.726
93.75,8.4064,18.036
105.47,7.1819,18.821
117.19,6.4383,17.708
128.91,12.771,16.144
140.63,15.61,15.99
152.34,10.312,15.663
164.06,1.7456,17.754
175.78,2.44,17.905
187.5,10.637,15.402
199.22,11.887,15.317
210.94,5.4137,16.737
222.66,8.4692,17.263
234.38,10.178,17.839
246.09,7.3597,17.121
257.81,11.434,15.456
269.53,9.7414,16.508
281.25,11.73,18.489
292.97,10.863,19.922
304.69,6.1594,21.95
316.41,6.0016,23.706
328.13,6.1623,22.519
339.84,7.7874,20.356
351.56,7.0202,17.119
363.28,5.8314,18.343
375,4.164,16.704
386.72,5.6524,17.005
398.44,6.7018,15.079
410.16,5.1791,13.323
421.88,5.7575,14.268
433.59,7.9151,16.008
445.31,3.9108,18.21
457.03,3.8811,19.054
468.75,4.6858,20.594
480.47,4.631,18.518
492.19,4.9428,17.657
503.91,2.2351,18.011
515.63,0.55881,20.398
527.34,0.77858,22.394
539.06,4.0994,20.986
550.78,6.7604,18.887
562.5,8.9217,19.627
574.22,8.0891,20.724
585.94,3.8106,19.799
597.66,2.8621,16.998
609.38,6.1263,16.671
621.09,7.2559,16.778
632.81,7.0088,18.854
644.53,7.1721,20.128
656.25,5.9807,20.589
667.97,3.8326,21.382
679.69,3.3826,19.055
691.41,6.0481,18.352
703.13,5.7003,16.919
714.84,3.0446,18.222
726.56,2.4235,17.781
738.28,7.0857,18.161
750,9.4235,15.856
761.72,6.2805,13.893
773.44,4.9845,16.011
785.16,4.4481,17.416
796.88,3.01,18.803
808.59,4.8654,18.138
820.31,7.9494,17.412
832.03,6.2603,14.255
843.75,4.6151,13.381
855.47,4.0978,16.984
867.19,3.6375,18.408
878.91,4.7426,16.452
890.63,5.0829,15.205
902.34,6.7187,18.522
914.06,4.661,19.521
925.78,4.9048,19.479
937.5,7.9165,18.265
949.22,4.1013,17.356
960.94,9.279,14.249
972.66,10.116,13.811
984.38,5.7091,17.724
996.09,4.713,18.072
1007.8,4.8689,18.867
1019.5,6.0096,17.935
1031.3,4.5427,18.046
1043,6.0222,15.436
1054.7,6.3133,14.321
1066.4,3.8374,14.229
1078.1,6.5568,13.823
1089.8,3.911,14.22
1101.6,5.3785,14.641
1113.3,4.9929,16.151
1125,5.0064,14.713
1136.7,3.7512,14.729
1148.4,5.9354,15.893
1160.2,6.9002,15.785
1171.9,4.6536,17.821
1183.6,3.7249,19.476
1195.3,4.9142,19.976
1207,2.5909,19.011
1218.8,5.185,16.498
1230.5,7.6536,16.437
1242.2,5.8832,17.19
1253.9,4.164,17.988
1265.6,6.5074,17.299
1277.3,6.7853,17.323
1289.1,5.3867,16.038
1300.8,6.1966,18.262
1312.5,6.1887,18.211
1324.2,2.8323,18.705
1335.9,5.1733,18.282
1347.7,5.5473,15.701
1359.4,3.3943,14.031
1371.1,4.1746,11.981
1382.8,5.0051,15.129
1394.5,5.4784,19.273
1406.3,2.4073,19.41
1418,3.8462,18.356
1429.7,6.3502,15.071
1441.4,7.0288,13.263
1453.1,5.5845,13.367
1464.8,2.7479,15.703
1476.6,4.8647,16.595
1488.3,4.4994,16.026
1500,5.8974,16.148
1511.7,7.6945,16.867
1523.4,6.6709,16.095
1535.2,6.2837,14.995
1546.9,3.598,16.373
1558.6,0.27623,17.255
1570.3,3.4948,15.255
1582,5.4386,13.735
1593.8,6.5484,12.512
1605.5,5.7278,14.279
1617.2,2.6936,15.064
1628.9,1.2647,14.832
1640.6,2.8149,14.13
1652.3,3.782,14.347
1664.1,6.4147,14.173
1675.8,5.0269,11.622
1687.5,3.9209,14.047
1699.2,4.7308,16.66
1710.9,6.9049,18.341
1722.7,5.5818,18.055
1734.4,1.2715,16.564
1746.1,-0.99026,15.5
1757.8,2.7124,15.297
1769.5,3.7292,14.818
1781.3,5.0026,13.4
1793,6.3973,13.937
1804.7,5.2779,12.631
1816.4,5.4756,10.513
1828.1,4.7515,10.019
1839.8,1.9838,11.473
1851.6,4.2504,13.652
1863.3,0.78914,15.258
1875,1.9313,16.215
1886.7,1.6778,16.045
1898.4,0.79893,14.081
1910.2,1.2177,11.647
1921.9,0.46922,13.085
1933.6,-0.93656,13.679
1945.3,1.288,14.019
1957,2.9078,16.213
1968.8,2.5627,17.184
1980.5,4.6541,17.297
1992.2,4.4134,15.774
2003.9,3.0132,14.408
2015.6,1.848,16.084
2027.3,-0.5188,17.674
2039.1,-0.78565,17.887
2050.8,-1.563,15.287
2062.5,2.6931,12.601
2074.2,3.6971,13.465
2085.9,2.4943,16.163
2097.7,-2.1298,16.51
2109.4,2.4963,14.944
2121.1,2.4297,12.991
2132.8,2.2211,12.412
2144.5,0.74347,16.053
2156.3,2.6965,16.685
2168,3.9174,14.912
2179.7,2.709,15.73
2191.4,1.6323,15.948
2203.1,4.8728,14.625
2214.8,3.3063,12.933
2226.6,2.0158,13.51
2238.3,2.6629,15.898
2250,2.7017,17.297
2261.7,3.1568,13.865
2273.4,2.7821,11.76
2285.2,2.0279,11.235
2296.9,0.61896,12.454
2308.6,1.7676,14.465
2320.3,-0.64386,13.458
2332,-2.0108,10.962
2343.8,-3.2799,11.33
2355.5,-0.21245,8.1839
2367.2,1.6838,10.663
2378.9,2.8425,12.484
2390.6,2.0077,11.478
2402.3,-0.45118,13.489
2414.1,-0.097105,13.288
2425.8,-1.7172,12.529
2437.5,0.20174,14.479
2449.2,2.3587,14.623
2460.9,1.3791,12.308
2472.7,-0.64915,10.12
2484.4,0.54453,9.1792
2496.1,0.91569,11.152
2507.8,2.9024,11.632
2519.5,4.1492,12.27
2531.3,5.947,10.878
2543,2.9771,8.0079
2554.7,-0.37586,9.9886
2566.4,-2.4617,11.926
2578.1,-0.74458,11.264
2589.8,-2.0772,12.643
2601.6,-1.4754,13.621
2613.3,1.4588,14.362
2625,2.6328,12.994
2636.7,3.6189,11.434
2648.4,1.6016,14.443
2660.2,0.055699,13.788
2671.9,-0.1753,11.259
2683.6,1.4635,9.2916
2695.3,-0.056174,9.4766
2707,1.4362,8.5056
2718.8,-1.2679,8.6633
2730.5,1.1862,12.476
2742.2,2.0579,12.902
2753.9,0.77504,11.561
2765.6,0.92577,11.123
2777.3,-0.17999,9.0823
2789.1,1.2104,9.0933
2800.8,4.2099,9.6346
2812.5,3.1199,11.251
2824.2,0.60406,12.536
2835.9,-0.9272,13.122
2847.7,-1.4447,12.844
2859.4,3.4468,12.14
2871.1,-1.0701,12.82
2882.8,0.80775,12.897
2894.5,-0.22861,7.4557
2906.3,-0.10585,9.8646
2918,-1.9954,9.8696
2929.7,0.89874,10.578
2941.4,0.57013,11.898
2953.1,-1.2676,11.186
2964.8,0.067512,12.167
2976.6,-0.95288,9.5622
2988.3,-1.2463,10.279
3000,-3.0876,12.08
3011.7,-2.038,12.266
3023.4,-0.098101,10.823
3035.2,-1.1375,10.825
3046.9,0.63183,9.3894
3058.6,0.41001,6.8337
3070.3,1.3992,8.3487
3082,0.71584,8.8462
3093.8,-1.423,8.7491
3105.5,-2.17,7.9233
3117.2,-3.2044,8.464
3128.9,-3.5596,9.5945
3140.6,-0.44074,12.072
3152.3,-1.275,12.839
3164.1,-3.2162,10.027
3175.8,-0.30445,9.4922
3187.5,0.33624,9.7595
3199.2,-0.79214,9.1106
3210.9,-3.3747,9.8851
3222.7,-1.3079,9.9093
3234.4,2.2686,11.896
3246.1,1.3086,10.343
3257.8,-0.71928,8.3286
3269.5,0.70215,8.0605
3281.3,0.14211,10.897
3293,-1.0787,10.7
3304.7,-2.3797,10.394
3316.4,-1.3214,10.823
3328.1,0.19833,8.7709
3339.8,-0.13998,3.3442
3351.6,-2.3169,4.1717
3363.3,0.49256,10.341
3375,-0.24174,12.574
3386.7,-0.43793,12.822
3398.4,-1.3576,13.562
3410.2,-3.8531,12.055
3421.9,-6.5894,9.055
3433.6,-9.1905,7.5449
3445.3,-6.0002,9.2116
3457,-2.9188,12.035
3468.8,-2.2576,12.883
3480.5,-2.5304,12.323
3492.2,-0.64579,11.313
3503.9,-2.0442,11.535
3515.6,-1.5589,9.5948
3527.3,0.66525,11.096
3539.1,-2.2015,11.426
3550.8,-4.1887,11.676
3562.5,-3.8399,10.486
3574.2,-3.3628,9.1916
3585.9,-1.405,10.665
3597.7,-2.6733,11.582
3609.4,-0.87292,12.863
3621.1,-2.3871,13.671
3632.8,0.29284,14.379
3644.5,0.14065,14.149
3656.3,-1.5708,11.188
3668,-1.6528,9.1944
3679.7,-2.025,10.852
3691.4,-0.76276,11.687
3703.1,-0.52371,12.578
3714.8,-1.5068,13.413
3726.6,-3.3387,10.639
3738.3,-2.4388,9.5011
3750,-1.9353,7.0557
3761.7,-2.1483,7.2762
3773.4,-0.93913,9.1423
3785.2,-4.2041,10.71
3796.9,-5.0187,11.408
3808.6,-6.0111,11.084
3820.3,-4.2061,10.279
3832,-4.7613,9.0678
3843.8,-2.657,11.401
3855.5,-0.32714,11.811
3867.2,-0.13415,10.41
3878.9,-3.4493,9.7281
3890.6,-4.3067,12.114
3902.3,-0.30422,13.258
3914.1,-0.072557,11.66
3925.8,-3.0442,8.6447
3937.5,-4.8838,7.0109
3949.2,-1.9169,6.0095
3960.9,-3.6143,8.6973
3972.7,-4.4723,8.2122
3984.4,0.9081,10.113
3996.1,-2.6239,11.154
4007.8,-2.6444,11.957
4019.5,0.040551,9.7187
4031.3,-1.2203,5.7481
4043,-3.2452,10.476
4054.7,-2.8921,10.772
4066.4,-3.7584,9.6961
4078.1,-0.38542,10.194
4089.8,-2.7614,7.8989
4101.6,-6.1971,9.2901
4113.3,-3.2734,11.362
4125,-1.8518,12.513
4136.7,-4.8565,10.807
4148.4,-1.2272,7.2772
4160.2,-2.8276,5.4684
4171.9,0.43496,5.8444
4183.6,-0.89398,7.2059
4195.3,-2.9192,11.656
4207,-2.8098,12.542
4218.8,-2.8737,12.26
4230.5,-0.72033,11.443
4242.2,-1.0603,11.277
4253.9,-2.6169,12.218
4265.6,-6.3588,11.546
4277.3,-3.4261,9.4854
4289.1,-3.0556,8.3067
4300.8,-2.6168,9.0138
4312.5,-2.3783,11.921
4324.2,-4.8811,10.075
4335.9,-4.3922,9.0782
4347.7,-4.9351,8.7586
4359.4,-4.0093,8.5476
4371.1,-2.5693,9.0853
4382.8,-4.3896,10.27
4394.5,-4.1878,8.9661
4406.3,-4.2597,7.9308
4418,-1.7136,8.4121
4429.7,-2.4528,9.3128
4441.4,-3.1299,7.7342
4453.1,-2.4083,8.8386
4464.8,-3.3873,9.9247
4476.6,-3.1274,9.4514
4488.3,-0.87054,7.3433
4500,-0.06809,4.2389
4511.7,-0.9887,7.9239
4523.4,-1.8438,9.3014
4535.2,-3.0437,8.521
4546.9,-3.9736,8.041
4558.6,-3.932,9.2492
4570.3,-1.7698,10.306
4582,-3.0816,10.027
4593.8,-1.1432,8.827
4605.5,0.93289,10.071
4617.2,0.72282,11.316
4628.9,-1.1172,9.9479
4640.6,-3.7373,3.1857
4652.3,-3.1113,5.5518
4664.1,-1.4779,5.0807
4675.8,-0.67374,7.6215
4687.5,-3.8512,11.283
4699.2,-5.1246,12.215
4710.9,-2.1957,9.2456
4722.7,-5.2433,8.8994
4734.4,-3.1192,8.2195
4746.1,-2.0827,8.5853
4757.8,-2.4842,12.71
4769.5,-3.4383,12.839
4781.3,-3.2637,9.3939
4793,-5.1789,7.6707
4804.7,-1.4432,8.5824
4816.4,-2.2221,6.9448
4828.1,-4.5675,8.8779
4839.8,-6.2052,8.2612
4851.6,-6.8043,9.6944
4863.3,-7.3484,8.4398
4875,-5.6863,4.5956
4886.7,-4.4219,8.8566
4898.4,-3.2501,11.852
4910.2,-2.1418,9.1909
4921.9,-4.8919,9.3857
4933.6,-6.1389,8.4605
4945.3,-5.3422,5.5945
4957,-2.1586,8.5141
4968.8,-2.0668,8.8491
4980.5,-0.2181,7.8257
4992.2,-1.4337,8.849
5003.9,-4.8088,8.2924
5015.6,-4.7023,8.8425
5027.3,-4.3349,5.6009
5039.1,-6.3586,4.7441
5050.8,-7.1665,9.3766
5062.5,-5.8384,12.728
5074.2,-2.7413,12.97
5085.9,-2.7375,11.524
5097.7,-1.9477,8.5029
5109.4,-4.2736,5.5911
5121.1,-3.6218,6.6784
5132.8,-6.2938,7.9447
5144.5,-2.2767,7.1034
5156.3,-3.6359,7.2483
5168,-8.5799,5.6636
5179.7,-8.441,6.3689
5191.4,-4.5689,9.3131
5203.1,-2.3969,8.4463
5214.8,-2.9831,7.0277
5226.6,-3.3814,7.1137
5238.3,-0.93392,7.5027
5250,-1.0788,8.6549
5261.7,-2.8342,9.5203
5273.4,-4.8432,9.7448
5285.2,-5.4965,9.5363
5296.9,-7.2044,7.8263
5308.6,-3.6488,9.0562
5320.3,-1.4713,10.416
5332,-0.90713,8.6437
5343.8,-6.2284,5.1488
5355.5,-5.5858,3.7352
5367.2,-6.0832,6.7887
5378.9,-4.8869,4.4472
5390.6,-4.8786,4.293
5402.3,-7.6311,7.4191
5414.1,-6.9717,9.2526
5425.8,-7.7281,10.371
5437.5,-5.8451,8.4665
5449.2,-5.2108,8.773
5460.9,-5.2441,9.7881
5472.7,-6.7995,9.6549
5484.4,-6.8289,9.7357
5496.1,-5.9552,6.989
5507.8,-3.9857,5.8929
5519.5,-3.8319,4.7001
5531.3,-4.9613,7.1059
5543,-3.6688,6.5671
5554.7,-7.604,5.6871
5566.4,-7.8769,7.2982
5578.1,-7.797,7.6018
5589.8,-4.5266,5.4611
5601.6,-1.4248,5.7091
5613.3,-1.4689,7.8471
5625,-3.1618,9.1492
5636.7,-4.4419,7.7131
5648.4,-5.2215,8.3105
5660.2,-6.7481,4.1107
5671.9,-3.348,5.1229
5683.6,-1.5628,8.6491
5695.3,-2.5006,8.0971
5707,-7.7412,5.6942
5718.8,-8.3285,7.2381
5730.5,-7.8535,7.9113
5742.2,-3.4423,8.3403
5753.9,-3.9366,9.707
5765.6,-7.5096,7.7471
5777.3,-7.7969,8.1497
5789.1,-8.2471,7.9049
5800.8,-6.1103,7.4179
5812.5,-3.7684,7.8232
5824.2,-5.3381,6.6204
5835.9,-4.2696,8.7437
5847.7,-1.2287,9.4522
5859.4,-3.4591,10.293
5871.1,-5.8097,9.5466
5882.8,-4.4849,7.4745
5894.5,-6.1787,6.0201
5906.3,-5.2898,5.8682
5918,-4.7113,8.5954
5929.7,-5.5812,12.081
5941.4,-4.9473,12.235
5953.1,-2.9782,9.5085
5964.8,-4.2004,6.0654
5976.6,-6.0367,8.0165
5988.3,-3.6493,9.2312
6000,-4.9489,7.2208
6011.7,-3.3255,5.0258
6023.4,-3.4036,7.1385
6035.2,-4.5614,6.1398
6046.9,-4.4483,7.5243
6058.6,-3.4184,9.3718
6070.3,-5.1644,10.393
6082,-6.8204,11.739
6093.8,-7.5796,10.802
6105.5,-6.4338,8.629
6117.2,-8.1825,8.1961
6128.9,-6.4846,7.5827
6140.6,-4.7465,8.2466
6152.3,-4.6589,8.0599
6164.1,-5.6265,6.4422
6175.8,-3.7372,5.7463
6187.5,-4.3984,6.7713
6199.2,-4.2838,7.5505
6210.9,-4.3487,6.2003
6222.7,-4.673,5.4797
6234.4,-6.3663,5.5382
6246.1,-7.4229,8.0468
6257.8,-8.482,7.4502
6269.5,-6.9557,6.5774
6281.3,-7.8167,4.5951
6293,-6.2507,2.9817
6304.7,-7.0107,3.4705
6316.4,-5.5377,3.7248
6328.1,-6.7818,4.6974
6339.8,-7.5058,2.9493
6351.6,-8.757,3.3641
6363.3,-8.1638,4.6347
6375,-7.5054,7.0127
6386.7,-3.6387,7.551
6398.4,-5.4185,7.1605
6410.2,-7.8331,5.4599
6421.9,-5.4905,3.8461
6433.6,-3.1963,5.8822
6445.3,-8.8753,6.0488
6457,-10.283,6.0166
6468.8,-7.1977,1.7664
6480.5,-3.6731,0.20274
6492.2,-4.2041,1.8204
6503.9,-5.7369,3.5292
6515.6,-6.6518,1.5925
6527.3,-7.3535,4.4252
6539.1,-5.4946,5.2676
6550.8,-5.8415,5.6504
6562.5,-7.5048,3.3789
6574.2,-6.8089,0.9535
6585.9,-7.8342,2.0643
6597.7,-8.1554,1.2783
6609.4,-4.0889,-4.3646
6621.1,-3.9223,-2.0351
6632.8,-4.1794,1.5268
6644.5,-5.6425,5.4803
6656.3,-7.4198,3.196
6668,-7.2592,1.3999
6679.7,-7.7821,2.0609
6691.4,-6.6992,2.597
6703.1,-7.3226,2.0904
6714.8,-10.152,2.1313
6726.6,-10.993,2.9944
6738.3,-8.8872,2.9748
6750,-5.0167,1.3174
6761.7,-5.2256,4.5653
6773.4,-7.4533,7.1311
6785.2,-5.5733,6.4297
6796.9,-5.8301,4.052
6808.6,-7.2142,3.2374
6820.3,-5.3874,5.4575
6832,-5.3323,6.1629
6843.8,-7.0522,7.4235
6855.5,-8.4258,7.1076
6867.2,-7.206,5.0257
6878.9,-5.7136,2.6021
6890.6,-7.0105,4.3051
6902.3,-5.1515,6.2821
6914.1,-5.9301,7.358
6925.8,-6.7713,8.3252
6937.5,-5.0085,8.1266
6949.2,-4.7477,7.7076
6960.9,-7.6484,4.4073
6972.7,-7.6973,6.8473
6984.4,-7.0927,10.383
6996.1,-8.9137,9.2724
7007.8,-10.385,5.224
7019.5,-7.8829,3.7015
7031.3,-5.2465,3.5263
7043,-4.5412,2.6771
7054.7,-6.1301,4.8164
7066.4,-7.3478,6.2667
7078.1,-12.341,6.3087
7089.8,-9.4524,6.0736
7101.6,-4.2975,5.3645
7113.3,-1.5745,4.8243
7125,-4.7486,5.2338
7136.7,-5.6783,6.8542
7148.4,-7.2363,6.116
7160.2,-6.6563,6.8729
7171.9,-10.663,5.4159
7183.6,-8.5205,3.7844
7195.3,-5.7822,2.1476
7207,-2.792,1.3322
7218.8,-4.2721,1.9062
7230.5,-5.517,4.2591
7242.2,-8.8942,3.5724
7253.9,-6.7445,3.4957
7265.6,-6.7538,5.1364
7277.3,-7.3846,5.4924
7289.1,-6.8783,4.1839
7300.8,-8.111,3.4812
7312.5,-8.0598,2.6055
7324.2,-8.3429,2.4096
7335.9,-12.186,6.5036
7347.7,-9.7468,7.2222
7359.4,-7.9786,3.3329
7371.1,-6.5141,5.5022
7382.8,-5.4953,8.2516
7394.5,-6.321,5.1264
7406.3,-6.1723,2.5206
7418,-5.2449,2.4706
7429.7,-4.9233,4.4808
7441.4,-5.1851,4.3911
7453.1,-8.1263,4.924
7464.8,-9.6322,3.0906
7476.6,-7.3888,0.49111
7488.3,-5.9489,3.0902
7500,1.2895,2.7784
7511.7,18.276,0.96275
7523.4,25.581,2.4184
7535.2,21.532,4.8701
7546.9,3,4.7248
7558.6,-7.5721,1.6541
7570.3,-8.4034,1.86
7582,-7.8081,3.1117
7593.8,-8.5081,5.8711
7605.5,-8.7028,7.5065
7617.2,-8.724,2.5824
7628.9,-7.6489,0.26777
7640.6,-8.4265,0.25011
7652.3,-11.067,1.4806
7664.1,-9.1536,1.2812
7675.8,-6.8895,2.9396
7687.5,-9.3952,2.8212
7699.2,-8.4277,4.0622
7710.9,-9.3513,2.0845
7722.7,-12.046,-0.78477
7734.4,-9.1563,1.3663
7746.1,-9.3571,1.9465
7757.8,-8.6929,-1.0596
7769.5,-8.1825,-0.23078
7781.3,-7.562,-2.0594
7793,-5.5843,1.0758
7804.7,-5.4136,-0.16178
7816.4,-9.0603,-0.27186
7828.1,-7.9095,0.33693
7839.8,-6.8204,0.39514
7851.6,-8.5623,0.46837
7863.3,-7.9616,3.0516
7875,-7.6108,4.1734
7886.7,-12.41,1.1966
7898.4,-10.734,0.65598
7910.2,-8.3362,2.9032
7921.9,-7.1887,5.0602
7933.6,-10.215,3.5831
7945.3,-8.5531,1.6982
7957,-7.1634,0.84376
7968.8,-7.6286,-1.9106
7980.5,-7.5718,0.71499
7992.2,-7.0883,2.6107
8003.9,-9.5385,5.0903
8015.6,-9.937,4.9992
8027.3,-7.9628,3.2068
8039.1,-5.8752,3.468
8050.8,-6.1342,5.3328
8062.5,-8.6827,2.7935
8074.2,-8.0178,-0.7943
8085.9,-8.0209,1.5153
8097.7,-10.922,2.0283
8109.4,-10.055,2.1453
8121.1,-11.573,1.9841
8132.8,-7.9685,1.2779
8144.5,-5.9807,3.7749
8156.3,-6.8484,2.1645
8168,-9.2001,1.9871
8179.7,-7.3064,4.1787
8191.4,-10.399,3.7496
8203.1,-10.354,3.3445
8214.8,-8.2902,2.0093
8226.6,-7.8739,-1.476
8238.3,-7.0156,2.7694
8250,-9.5236,5.3603
8261.7,-8.8723,5.0092
8273.4,-9.3335,1.0536
8285.2,-10.753,0.19826
8296.9,-10.098,-1.009
8308.6,-9.6674,2.7843
8320.3,-10.518,-0.087199
8332,-12.249,-1.5672
8343.8,-10.907,0.0098712
8355.5,-10.929,-0.071975
8367.2,-10.194,-1.3701
8378.9,-9.9925,-1.5935
8390.6,-11.527,0.56145
8402.3,-9.6179,3.2239
8414.1,-7.4113,4.5607
8425.8,-8.9127,6.7478
8437.5,-10.451,5.2534
8449.2,-10.369,1.7963
8460.9,-8.4407,2.0085
8472.7,-8.2438,2.6128
8484.4,-10.65,0.96861
8496.1,-10.788,0.91867
8507.8,-9.7836,0.9914
8519.5,-8.8563,0.71056
8531.3,-7.6316,0.75054
8543,-8.9137,0.51674
8554.7,-9.038,-0.14109
8566.4,-10.091,-0.29102
8578.1,-7.1004,-1.1483
8589.8,-7.7898,1.4401
8601.6,-8.7426,1.9862
8613.3,-7.5477,2.3051
8625,-8.5102,3.2505
8636.7,-11.968,5.5767
8648.4,-10.779,5.6623
8660.2,-7.9382,0.62057
8671.9,-6.5618,-2.3561
8683.6,-8.3656,1.7784
8695.3,-8.2555,3.3594
8707,-9.4654,2.237
8718.8,-9.7655,-1.8742
8730.5,-9.9487,-0.38622
8742.2,-9.2881,1.2689
8753.9,-11.246,1.3862
8765.6,-10.943,0.66954
8777.3,-9.9859,-1.8649
8789.1,-10.917,-0.17661
8800.8,-11.084,2.6829
8812.5,-10.968,4.9051
8824.2,-10.111,2.2018
8835.9,-10.839,-1.3009
8847.7,-13.314,-1.3535
8859.4,-10.116,3.5653
8871.1,-9.0432,3.6091
8882.8,-8.2213,1.0343
8894.5,-7.8794,-0.76974
8906.3,-8.1169,0.82714
8918,-7.8762,2.1553
8929.7,-8.9902,0.67513
8941.4,-9.2947,3.4937
8953.1,-9.4288,3.8229
8964.8,-7.8532,3.1181
8976.6,-10.631,2.6176
8988.3,-11.609,-0.19766
9000,-11.401,-0.06058
9011.7,-11.688,-0.70209
9023.4,-12.137,-0.26632
9035.2,-8.5687,-0.79112
9046.9,-7.036,3.1047
9058.6,-13.854,4.398
9070.3,-10.887,5.7452
9082,-10.685,4.5586
9093.8,-10.892,2.4675
9105.5,-9.9315,1.375
9117.2,-9.9783,3.0484
9128.9,-10.9,3.2343
9140.6,-14.315,4.1569
9152.3,-14.817,3.6313
9164.1,-12.249,2.5849
9175.8,-10.637,2.2989
9187.5,-10.358,3.2033
9199.2,-12.875,2.6421
9210.9,-11.607,0.71871
9222.7,-9.039,1.8182
9234.4,-9.0287,2.4437
9246.1,-11.145,4.0058
9257.8,-10.606,3.9403
9269.5,-12.273,2.7906
9281.3,-11.912,2.0926
9293,-12.45,3.1
9304.7,-9.8115,3.0242
9316.4,-10.052,3.2211
9328.1,-10.587,3.7365
9339.8,-12.719,4.4148
9351.6,-14.377,4.7952
9363.3,-13.492,3.7464
9375,-12.743,3.8842
9386.7,-13.314,3.8346
9398.4,-10.472,4.8033
9410.2,-9.3943,3.7282
9421.9,-11.991,2.6021
9433.6,-14.599,1.1411
9445.3,-11.568,-0.81644
9457,-8.6009,1.5607
9468.8,-10.219,2.5861
9480.5,-14.881,2.9215
9492.2,-13.846,5.2931
9503.9,-12.211,4.6436
9515.6,-11.014,1.8024
9527.3,-10.401,2.5104
9539.1,-9.9868,1.9308
9550.8,-9.894,0.19676
9562.5,-11.808,-0.14507
9574.2,-9.689,2.7991
9585.9,-9.4946,3.2659
9597.7,-8.3161,-0.0057171
9609.4,-8.2895,-0.65812
9621.1,-9.379,0.58759
9632.8,-10.295,0.06671
9644.5,-10.231,0.35114
9656.3,-12.036,2.0949
9668,-10.771,1.789
9679.7,-8.3937,1.6551
9691.4,-9.9182,-1.1202
9703.1,-8.7707,-3.5865
9714.8,-10.742,-0.36448
9726.6,-11.121,-0.26628
9738.3,-11.02,-3.2209
9750,-9.5446,-6.0053
9761.7,-11.172,-2.0011
9773.4,-12.412,3.0924
9785.2,-12.725,3.1348
9796.9,-13.953,3.5407
9808.6,-10.712,3.2476
9820.3,-12.061,1.7244
9832,-12.469,0.049471
9843.8,-12.101,-1.9004
9855.5,-12.471,-4.0967
9867.2,-12.304,-1.0734
9878.9,-11.061,-2.5464
9890.6,-11.165,-0.0027707
9902.3,-12.473,3.3726
9914.1,-12.338,2.3085
9925.8,-14.215,1.9036
9937.5,-13.769,1.3355
9949.2,-11.048,-6.499
9960.9,-10.375,2.2113
9972.7,-9.8416,4.7831
9984.4,-10.661,2.4746
9996.1,-11.078,-1.0428
10008,-8.4602,-1.3714
10020,-7.3873,-1.6228
10031,-8.6898,-2.5465
10043,-7.6677,-3.4221
10055,-9.8804,-0.7263
10066,-17.163,1.4786
10078,-15.382,1.8302
10090,-13.542,0.030354
10102,-13.699,-1.3372
10113,-12.979,0.36678
10125,-10.989,2.8286
10137,-11.665,3.4568
10148,-12.736,2.9359
10160,-13.416,1.6147
10172,-11.609,1.1109
10184,-10.768,0.26825
10195,-9.9426,-2.5723
10207,-11.019,-1.2987
10219,-11.19,-1.261
10230,-11.476,0.95366
10242,-11.476,2.8786
10254,-13.388,2.522
10266,-9.5858,2.6325
10277,-11.052,4.0945
10289,-15.101,1.9815
10301,-13.656,2.0517
10313,-12.445,0.36858
10324,-13.481,-1.3133
10336,-12.25,-1.2369
